Time (s),Torque (Nm)
1.566,-9.298
1.576,-8.493
1.587,-8.291
1.597,-9.097
1.608,-7.888
1.618,-7.687
1.629,-8.895
1.640,-6.881
1.650,-8.694
1.661,-8.493
1.671,-8.090
1.682,-9.500
1.694,-9.097
1.703,-8.493
1.713,-8.895
1.724,-6.881
1.734,-8.291
1.745,-8.694
1.755,-7.687
1.766,-9.298
1.777,-8.895
1.787,-8.090
1.798,-9.298
1.808,-7.888
1.819,-7.888
1.829,-8.694
1.840,-7.284
1.850,-8.493
1.861,-8.895
1.871,-7.888
1.882,-9.701
1.892,-8.291
1.903,-8.090
1.913,-8.895
1.924,-7.485
1.935,-7.888
1.945,-8.895
1.955,-7.687
1.966,-9.903
1.977,-8.694
1.987,-8.090
1.998,-9.298
2.008,-8.291
2.019,-7.687
2.029,-8.895
2.040,-6.881
2.050,-8.291
2.061,-8.694
2.071,-7.687
2.082,-9.701
2.092,-8.694
2.103,-8.291
2.114,-9.097
2.124,-7.687
2.135,-8.090
2.145,-8.694
2.156,-7.687
2.166,-9.097
2.177,-8.694
2.187,-7.888
2.198,-9.298
2.208,-8.090
2.219,-7.888
2.229,-8.694
2.240,-7.082
2.250,-8.291
2.261,-8.895
2.272,-7.687
2.282,-9.701
2.293,-8.694
2.303,-8.090
2.314,-8.694
2.324,-7.687
2.335,-7.888
2.345,-8.895
2.356,-7.485
2.366,-9.097
2.377,-8.694
2.387,-8.090
2.398,-9.500
2.408,-8.291
2.419,-7.888
2.429,-8.895
2.440,-7.284
2.450,-8.291
2.461,-8.895
2.472,-7.687
2.482,-9.701
2.493,-8.694
2.503,-8.090
2.514,-8.895
2.524,-7.485
2.535,-7.888
2.545,-8.694
2.556,-7.284
2.567,-9.500
2.577,-8.493
2.587,-7.888
2.598,-9.298
2.608,-8.090
2.619,-7.888
2.630,-8.493
2.640,-7.284
2.651,-8.090
2.661,-8.694
2.672,-7.888
2.682,-9.500
2.693,-8.694
2.703,-8.090
2.714,-8.895
2.724,-7.485
2.735,-7.888
2.745,-8.694
2.756,-7.284
2.766,-8.694
2.777,-9.097
2.787,-8.090
2.798,-9.701
2.808,-8.090
2.819,-8.694
2.830,-8.694
2.840,-7.284
2.851,-8.090
2.861,-8.694
2.872,-7.687
2.882,-9.701
2.893,-8.694
2.903,-8.291
2.914,-9.097
2.924,-7.687
2.935,-7.888
2.945,-8.694
2.956,-7.485
2.967,-8.895
2.977,-8.895
2.988,-8.090
2.998,-9.701
3.009,-8.493
3.019,-7.888
3.030,-8.895
3.040,-6.881
3.051,-8.291
3.061,-10.104
3.072,-8.291
3.082,-9.500
3.093,-8.694
3.103,-7.687
3.114,-9.298
3.124,-7.888
3.135,-8.090
3.145,-8.493
3.156,-7.485
3.167,-8.895
3.177,-8.895
3.188,-7.687
3.198,-9.701
3.209,-8.291
3.219,-8.090
3.230,-8.694
3.240,-7.082
3.251,-7.888
3.261,-8.694
3.272,-7.687
3.282,-9.097
3.293,-8.694
3.304,-8.090
3.314,-8.895
3.325,-8.090
3.335,-7.888
3.346,-8.493
3.356,-7.284
3.367,-8.493
3.377,-8.895
3.388,-7.888
3.398,-9.903
3.409,-8.694
3.419,-8.090
3.430,-8.895
3.440,-7.284
3.451,-8.090
3.461,-8.694
3.472,-8.090
3.482,-9.097
3.493,-8.895
3.504,-7.888
3.514,-9.298
3.525,-7.687
3.535,-7.888
3.546,-8.493
3.556,-7.284
3.567,-8.291
3.577,-9.097
3.588,-7.888
3.598,-9.903
3.609,-8.493
3.619,-8.090
3.630,-8.694
3.640,-7.284
3.651,-8.090
3.662,-8.694
3.672,-7.485
3.683,-9.298
3.693,-8.895
3.704,-8.090
3.714,-9.097
3.725,-7.888
3.735,-7.888
3.746,-8.895
3.756,-7.082
3.767,-8.291
3.777,-8.493
3.788,-8.090
3.798,-9.500
3.809,-8.694
3.819,-7.888
3.830,-9.097
3.840,-7.082
3.851,-8.090
3.862,-8.493
3.872,-7.687
3.883,-8.895
3.893,-9.097
3.904,-7.888
3.914,-9.298
3.925,-8.090
3.935,-8.291
3.946,-8.694
3.956,-7.284
3.967,-8.291
3.977,-8.895
3.988,-7.888
3.998,-9.701
4.009,-8.694
4.020,-8.090
4.030,-9.097
4.041,-7.284
4.051,-7.888
4.062,-8.694
4.072,-7.687
4.083,-8.895
4.093,-8.694
4.104,-8.090
4.114,-9.298
4.125,-8.090
4.135,-7.888
4.146,-8.694
4.156,-6.881
4.167,-8.291
4.177,-8.493
4.188,-7.888
4.198,-9.298
4.209,-8.694
4.220,-7.888
4.230,-8.895
4.241,-7.284
4.251,-8.090
4.262,-8.493
4.272,-7.888
4.283,-8.895
4.293,-8.895
4.304,-7.888
4.314,-9.298
4.325,-8.090
4.335,-7.888
4.346,-8.895
4.356,-7.082
4.367,-8.291
4.378,-8.694
4.388,-7.888
4.399,-9.500
4.409,-8.694
4.420,-8.090
4.430,-9.097
4.441,-7.485
4.451,-8.090
4.462,-8.694
4.472,-7.687
4.483,-8.895
4.493,-8.694
4.504,-8.090
4.514,-9.500
4.525,-8.291
4.535,-7.888
4.546,-8.895
4.556,-7.082
4.567,-8.291
4.578,-8.895
4.588,-8.090
4.599,-9.500
4.609,-8.694
4.620,-8.291
4.630,-8.694
4.641,-7.485
4.651,-8.090
4.662,-8.694
4.672,-7.485
4.683,-8.895
4.693,-8.493
4.704,-8.090
4.714,-9.097
4.725,-9.500
4.736,-7.485
4.746,-8.895
4.757,-7.082
4.767,-8.291
4.778,-8.493
4.788,-7.888
4.799,-9.298
4.809,-8.694
4.820,-7.888
4.830,-9.097
4.841,-7.485
4.851,-7.888
4.862,-8.895
4.873,-7.687
4.883,-8.895
4.893,-9.097
4.904,-8.291
4.915,-10.104
4.925,-8.694
4.936,-8.090
4.946,-8.895
4.957,-7.082
4.967,-8.291
4.978,-8.895
4.988,-7.888
4.999,-9.298
5.009,-8.694
5.020,-8.291
5.030,-8.895
5.041,-7.888
5.051,-7.687
5.062,-8.694
5.073,-7.082
5.083,-8.895
5.094,-8.694
5.104,-8.493
5.115,-9.298
5.125,-8.493
5.136,-7.687
5.146,-8.895
5.157,-6.881
5.167,-8.291
5.178,-8.493
5.188,-7.888
5.199,-9.298
5.210,-8.895
5.220,-8.090
5.231,-9.097
5.241,-7.687
5.252,-7.888
5.262,-8.694
5.273,-7.284
5.283,-8.493
5.294,-8.895
5.304,-7.888
5.315,-9.701
5.325,-8.493
5.336,-7.888
5.346,-8.694
5.357,-7.082
5.367,-7.888
5.378,-8.895
5.388,-7.485
5.399,-9.500
5.410,-8.493
5.420,-8.090
5.431,-9.097
5.441,-8.090
5.452,-7.687
5.462,-8.895
5.473,-6.881
5.483,-8.895
5.494,-8.694
5.504,-8.090
5.515,-9.500
5.525,-8.694
5.536,-7.687
5.546,-8.895
5.557,-7.082
5.568,-8.090
5.578,-8.694
5.589,-7.888
5.599,-9.500
5.610,-8.694
5.620,-8.090
5.631,-9.298
5.641,-7.888
5.652,-7.888
5.662,-8.694
5.673,-7.082
5.683,-8.291
5.694,-8.895
5.704,-7.888
5.715,-9.500
5.725,-8.291
5.736,-7.888
5.746,-8.694
5.757,-7.284
5.768,-7.888
5.778,-8.694
5.789,-7.485
5.799,-9.298
5.810,-8.493
5.820,-8.090
5.831,-9.298
5.841,-8.090
5.852,-7.687
5.862,-8.895
5.873,-6.881
5.883,-8.493
5.894,-8.694
5.904,-8.090
5.915,-9.500
5.926,-8.493
5.936,-8.090
5.947,-8.895
5.957,-7.284
5.968,-7.888
5.978,-8.895
5.989,-7.687
5.999,-9.298
6.010,-8.895
6.020,-8.090
6.031,-9.298
6.041,-8.291
6.052,-7.888
6.062,-8.694
6.073,-7.082
6.084,-8.493
6.094,-9.097
6.104,-7.888
6.115,-9.500
6.126,-8.493
6.136,-8.090
6.147,-8.895
6.157,-7.284
6.168,-7.687
6.178,-8.493
6.189,-7.485
6.199,-9.097
6.210,-8.694
6.220,-8.090
6.231,-9.097
6.241,-7.888
6.252,-7.888
6.262,-8.493
6.273,-7.082
6.284,-8.291
6.294,-8.895
6.305,-7.687
6.315,-9.701
6.326,-8.493
6.336,-8.090
6.347,-8.895
6.357,-7.485
6.368,-7.888
6.378,-8.895
6.389,-7.485
6.399,-9.097
6.410,-8.694
6.420,-8.090
6.431,-9.298
6.442,-8.291
6.452,-7.888
6.462,-8.694
6.473,-7.082
6.484,-8.493
6.494,-8.895
6.505,-8.090
6.515,-10.507
6.526,-9.701
6.536,-8.090
6.547,-9.097
6.557,-7.485
6.568,-7.888
6.578,-8.694
6.589,-7.485
6.599,-8.895
6.610,-8.895
6.621,-7.888
6.631,-9.500
6.642,-7.888
6.652,-8.090
6.663,-8.493
6.673,-8.694
